# wavelength (AA)	 flux density (erg/cm**2/s/AA)	error
6616.9604 1.463e-16 2.993e-18
6618.2633 1.535e-16 3.069e-18
6619.5661 1.550e-16 3.077e-18
6620.8689 1.539e-16 3.078e-18
6622.1717 1.547e-16 3.082e-18
6623.4746 1.492e-16 3.038e-18
6624.7774 1.549e-16 3.082e-18
6626.0802 1.536e-16 3.075e-18
6627.3831 1.535e-16 3.082e-18
6628.6859 1.546e-16 3.092e-18
6629.9887 1.488e-16 3.052e-18
6631.2915 1.502e-16 3.054e-18
6632.5944 1.510e-16 3.064e-18
6633.8972 1.502e-16 3.071e-18
6635.2000 1.511e-16 3.076e-18
6636.5028 1.548e-16 3.104e-18
6637.8057 1.548e-16 3.103e-18
6639.1085 1.540e-16 3.092e-18
6640.4113 1.503e-16 3.053e-18
6641.7141 1.529e-16 3.062e-18
6643.0170 1.514e-16 3.049e-18
6644.3198 1.526e-16 3.059e-18
6645.6226 1.512e-16 3.045e-18
6646.9254 1.487e-16 3.031e-18
6648.2283 1.468e-16 3.017e-18
6649.5311 1.490e-16 3.035e-18
6650.8339 1.469e-16 3.022e-18
6652.1367 1.486e-16 3.033e-18
6653.4396 1.514e-16 3.057e-18
6654.7424 1.492e-16 3.038e-18
6656.0452 1.494e-16 3.031e-18
6657.3480 1.522e-16 3.055e-18
6658.6509 1.477e-16 3.022e-18
6659.9537 1.516e-16 3.056e-18
6661.2565 1.496e-16 3.043e-18
6662.5593 1.487e-16 3.039e-18
6663.8622 1.465e-16 3.019e-18
6665.1650 1.502e-16 3.046e-18
6666.4678 1.437e-16 2.997e-18
6667.7706 1.469e-16 3.027e-18
6669.0735 1.482e-16 3.033e-18
6670.3763 1.449e-16 3.004e-18
6671.6791 1.476e-16 3.028e-18
6672.9819 1.454e-16 3.008e-18
6674.2848 1.446e-16 2.998e-18
6675.5876 1.479e-16 3.022e-18
6676.8904 1.470e-16 3.011e-18
6678.1932 1.488e-16 3.031e-18
6679.4961 1.490e-16 3.021e-18
6680.7989 1.418e-16 2.971e-18
6682.1017 1.462e-16 3.008e-18
6683.4045 1.483e-16 3.021e-18
6684.7074 1.528e-16 3.054e-18
6686.0102 1.490e-16 3.028e-18
6687.3130 1.511e-16 3.049e-18
6688.6158 1.487e-16 3.021e-18
6689.9187 1.443e-16 2.988e-18
6691.2215 1.487e-16 3.021e-18
6692.5243 1.470e-16 3.010e-18
6693.8271 1.493e-16 3.024e-18
6695.1300 1.485e-16 3.022e-18
6696.4328 1.457e-16 2.998e-18
6697.7356 1.445e-16 2.990e-18
6699.0384 1.486e-16 3.028e-18
6700.3413 1.470e-16 3.021e-18
6701.6441 1.444e-16 3.004e-18
6702.9469 1.468e-16 3.019e-18
6704.2497 1.527e-16 3.062e-18
6705.5526 1.480e-16 3.019e-18
6706.8554 1.453e-16 2.996e-18
6708.1582 1.468e-16 3.011e-18
6709.4610 1.447e-16 3.001e-18
6710.7639 1.452e-16 3.002e-18
6712.0667 1.441e-16 2.982e-18
6713.3695 1.487e-16 3.017e-18
6714.6723 1.490e-16 3.025e-18
6715.9752 1.453e-16 3.002e-18
6717.2780 1.470e-16 3.014e-18
6718.5808 1.504e-16 3.035e-18
6719.8836 1.469e-16 3.012e-18
6721.1865 1.437e-16 2.991e-18
6722.4893 1.449e-16 3.001e-18
6723.7921 1.402e-16 2.970e-18
6725.0949 1.438e-16 3.010e-18
6726.3978 1.440e-16 3.020e-18
6727.7006 1.440e-16 3.024e-18
6729.0034 1.415e-16 3.009e-18
6730.3062 1.386e-16 2.978e-18
6731.6091 1.421e-16 2.998e-18
6732.9119 1.461e-16 3.020e-18
6734.2147 1.457e-16 3.001e-18
6735.5175 1.442e-16 2.985e-18
6736.8204 1.484e-16 3.024e-18
6738.1232 1.477e-16 3.010e-18
6739.4260 1.424e-16 2.962e-18
6740.7288 1.409e-16 2.958e-18
6742.0317 1.405e-16 2.962e-18
6743.3345 1.425e-16 2.979e-18
6744.6373 1.486e-16 3.023e-18
6745.9401 1.474e-16 3.010e-18
6747.2430 1.413e-16 2.966e-18
6748.5458 1.373e-16 2.927e-18
6749.8486 1.408e-16 2.955e-18
6751.1514 1.398e-16 2.956e-18
6752.4543 1.404e-16 2.959e-18
6753.7571 1.398e-16 2.949e-18
6755.0599 1.382e-16 2.942e-18
6756.3627 1.385e-16 2.939e-18
6757.6656 1.377e-16 2.937e-18
6758.9684 1.407e-16 2.960e-18
6760.2712 1.434e-16 2.975e-18
6761.5740 1.376e-16 2.932e-18
6762.8769 1.347e-16 2.920e-18
6764.1797 1.406e-16 2.962e-18
6765.4825 1.435e-16 2.982e-18
6766.7853 1.433e-16 2.979e-18
6768.0882 1.397e-16 2.951e-18
6769.3910 1.393e-16 2.948e-18
6770.6938 1.456e-16 2.995e-18
6771.9966 1.413e-16 2.959e-18
6773.2995 1.398e-16 2.951e-18
6774.6023 1.387e-16 2.946e-18
6775.9051 1.375e-16 2.936e-18
6777.2079 1.401e-16 2.950e-18
6778.5108 1.404e-16 2.956e-18
6779.8136 1.400e-16 2.950e-18
6781.1164 1.397e-16 2.947e-18
6782.4192 1.398e-16 2.954e-18
6783.7221 1.388e-16 2.949e-18
6785.0249 1.403e-16 2.958e-18
6786.3277 1.369e-16 2.932e-18
6787.6305 1.364e-16 2.933e-18
6788.9334 1.412e-16 2.971e-18
6790.2362 1.388e-16 2.955e-18
6791.5390 1.368e-16 2.939e-18
6792.8418 1.365e-16 2.933e-18
6794.1447 1.411e-16 2.960e-18
6795.4475 1.375e-16 2.931e-18
6796.7503 1.414e-16 2.959e-18
6798.0531 1.407e-16 2.955e-18
6799.3560 1.399e-16 2.952e-18
6800.6588 1.405e-16 2.950e-18
6801.9616 1.402e-16 2.950e-18
6803.2644 1.383e-16 2.941e-18
6804.5673 1.413e-16 2.968e-18
6805.8701 1.368e-16 2.932e-18
6807.1729 1.361e-16 2.929e-18
6808.4757 1.371e-16 2.936e-18
6809.7786 1.344e-16 2.916e-18
6811.0814 1.378e-16 2.942e-18
6812.3842 1.355e-16 2.922e-18
6813.6870 1.403e-16 2.963e-18
6814.9899 1.356e-16 2.926e-18
6816.2927 1.331e-16 2.906e-18
6817.5955 1.386e-16 2.953e-18
6818.8983 1.409e-16 2.966e-18
6820.2012 1.393e-16 2.948e-18
6821.5040 1.368e-16 2.934e-18
6822.8068 1.354e-16 2.928e-18
6824.1096 1.390e-16 2.962e-18
6825.4125 1.381e-16 2.981e-18
6826.7153 1.395e-16 3.069e-18
6828.0181 1.355e-16 3.149e-18
6829.3209 1.346e-16 3.226e-18
6830.6238 1.403e-16 3.294e-18
6831.9266 1.360e-16 3.276e-18
6833.2294 1.366e-16 3.290e-18
6834.5322 1.377e-16 3.277e-18
6835.8351 1.393e-16 3.231e-18
6837.1379 1.398e-16 3.199e-18
6838.4407 1.355e-16 3.112e-18
6839.7435 1.325e-16 3.012e-18
6841.0464 1.390e-16 3.034e-18
6842.3492 1.388e-16 3.035e-18
6843.6520 1.366e-16 3.018e-18
6844.9548 1.389e-16 3.024e-18
6846.2577 1.367e-16 2.979e-18
6847.5605 1.357e-16 2.954e-18
6848.8633 1.426e-16 3.000e-18
6850.1661 1.391e-16 2.976e-18
6851.4690 1.411e-16 2.991e-18
6852.7718 1.419e-16 2.998e-18
6854.0746 1.370e-16 2.959e-18
6855.3774 1.411e-16 2.984e-18
6856.6803 1.402e-16 2.977e-18
6857.9831 1.341e-16 2.929e-18
6859.2859 1.337e-16 2.931e-18
6860.5887 1.361e-16 2.991e-18
6861.8916 1.337e-16 3.106e-18
6863.1944 1.369e-16 3.316e-18
6864.4972 1.336e-16 3.383e-18
6865.8000 1.348e-16 3.390e-18
6867.1029 1.360e-16 3.346e-18
6868.4057 1.242e-16 3.117e-18
6869.7085 1.079e-16 2.808e-18
6871.0113 1.013e-16 2.706e-18
6872.3142 9.793e-17 2.662e-18
6873.6170 9.645e-17 2.647e-18
6874.9198 1.006e-16 2.670e-18
6876.2226 1.047e-16 2.677e-18
6877.5255 1.092e-16 2.714e-18
6878.8283 1.141e-16 2.773e-18
6880.1311 1.126e-16 2.784e-18
6881.4339 1.241e-16 2.907e-18
6882.7368 1.283e-16 2.941e-18
6884.0396 1.325e-16 2.970e-18
6885.3424 1.258e-16 2.909e-18
6886.6452 1.205e-16 2.850e-18
6887.9481 1.212e-16 2.878e-18
6889.2509 1.175e-16 2.887e-18
6890.5537 1.125e-16 2.858e-18
6891.8565 1.175e-16 2.895e-18
6893.1594 1.171e-16 2.868e-18
6894.4622 1.167e-16 2.830e-18
6895.7650 1.183e-16 2.814e-18
6897.0678 1.180e-16 2.814e-18
6898.3707 1.158e-16 2.808e-18
6899.6735 1.214e-16 2.895e-18
6900.9763 1.211e-16 2.936e-18
6902.2791 1.203e-16 2.934e-18
6903.5820 1.202e-16 2.924e-18
6904.8848 1.222e-16 2.917e-18
6906.1876 1.243e-16 2.890e-18
6907.4904 1.280e-16 2.886e-18
6908.7933 1.311e-16 2.914e-18
6910.0961 1.288e-16 2.925e-18
6911.3989 1.251e-16 2.960e-18
6912.7018 1.243e-16 2.996e-18
6914.0046 1.286e-16 3.037e-18
6915.3074 1.314e-16 3.053e-18
6916.6102 1.292e-16 3.003e-18
6917.9131 1.281e-16 2.933e-18
6919.2159 1.297e-16 2.912e-18
6920.5187 1.323e-16 2.966e-18
6921.8215 1.302e-16 3.056e-18
6923.1244 1.292e-16 3.144e-18
6924.4272 1.293e-16 3.166e-18
6925.7300 1.293e-16 3.151e-18
6927.0328 1.332e-16 3.133e-18
6928.3357 1.308e-16 3.011e-18
6929.6385 1.294e-16 2.916e-18
6930.9413 1.292e-16 2.901e-18
6932.2441 1.286e-16 2.899e-18
6933.5470 1.301e-16 2.909e-18
6934.8498 1.335e-16 2.928e-18
6936.1526 1.327e-16 2.940e-18
6937.4554 1.294e-16 2.954e-18
6938.7583 1.292e-16 3.004e-18
6940.0611 1.335e-16 3.073e-18
6941.3639 1.326e-16 3.066e-18
6942.6667 1.332e-16 3.052e-18
6943.9696 1.314e-16 3.004e-18
6945.2724 1.304e-16 2.955e-18
6946.5752 1.330e-16 3.013e-18
6947.8780 1.326e-16 3.132e-18
6949.1809 1.329e-16 3.217e-18
6950.4837 1.339e-16 3.252e-18
6951.7865 1.349e-16 3.242e-18
6953.0893 1.348e-16 3.179e-18
6954.3922 1.325e-16 3.030e-18
6955.6950 1.353e-16 2.976e-18
6956.9978 1.380e-16 2.987e-18
6958.3006 1.309e-16 2.927e-18
6959.6035 1.262e-16 2.887e-18
6960.9063 1.299e-16 2.926e-18
6962.2091 1.337e-16 2.947e-18
6963.5119 1.334e-16 2.943e-18
6964.8148 1.348e-16 2.958e-18
6966.1176 1.346e-16 2.956e-18
6967.4204 1.331e-16 2.967e-18
6968.7232 1.317e-16 2.986e-18
6970.0261 1.298e-16 3.000e-18
6971.3289 1.336e-16 3.043e-18
6972.6317 1.373e-16 3.054e-18
6973.9345 1.385e-16 3.046e-18
6975.2374 1.366e-16 3.012e-18
6976.5402 1.295e-16 2.979e-18
6977.8430 1.297e-16 3.066e-18
6979.1458 1.322e-16 3.125e-18
6980.4487 1.323e-16 3.122e-18
6981.7515 1.325e-16 3.091e-18
6983.0543 1.343e-16 3.050e-18
6984.3571 1.345e-16 2.976e-18
6985.6600 1.343e-16 2.956e-18
6986.9628 1.302e-16 2.928e-18
6988.2656 1.296e-16 2.921e-18
6989.5684 1.294e-16 2.915e-18
6990.8713 1.364e-16 2.966e-18
6992.1741 1.325e-16 2.933e-18
6993.4769 1.297e-16 2.916e-18
6994.7797 1.299e-16 2.916e-18
6996.0826 1.303e-16 2.921e-18
6997.3854 1.302e-16 2.925e-18
6998.6882 1.330e-16 2.951e-18
6999.9910 1.311e-16 2.940e-18
7001.2939 1.351e-16 2.980e-18
7002.5967 1.338e-16 2.980e-18
7003.8995 1.319e-16 2.977e-18
7005.2023 1.312e-16 2.975e-18
7006.5052 1.307e-16 2.965e-18
7007.8080 1.300e-16 2.948e-18
7009.1108 1.296e-16 2.948e-18
7010.4136 1.289e-16 2.967e-18
7011.7165 1.303e-16 3.002e-18
7013.0193 1.327e-16 3.031e-18
7014.3221 1.346e-16 3.039e-18
7015.6249 1.362e-16 3.019e-18
7016.9278 1.300e-16 2.931e-18
7018.2306 1.283e-16 2.902e-18
7019.5334 1.331e-16 2.940e-18
7020.8362 1.325e-16 2.936e-18
7022.1391 1.327e-16 2.935e-18
7023.4419 1.310e-16 2.923e-18
7024.7447 1.335e-16 2.952e-18
7026.0475 1.317e-16 2.933e-18
7027.3504 1.307e-16 2.918e-18
7028.6532 1.293e-16 2.911e-18
7029.9560 1.290e-16 2.917e-18
7031.2588 1.256e-16 2.887e-18
7032.5617 1.270e-16 2.901e-18
7033.8645 1.305e-16 2.931e-18
7035.1673 1.318e-16 2.942e-18
7036.4701 1.306e-16 2.931e-18
7037.7730 1.315e-16 2.938e-18
7039.0758 1.325e-16 2.948e-18
7040.3786 1.349e-16 2.971e-18
7041.6814 1.304e-16 2.939e-18
7042.9843 1.297e-16 2.938e-18
7044.2871 1.310e-16 2.955e-18
7045.5899 1.337e-16 2.986e-18
7046.8927 1.326e-16 2.994e-18
7048.1956 1.347e-16 3.029e-18
7049.4984 1.322e-16 3.018e-18
7050.8012 1.349e-16 3.032e-18
7052.1040 1.333e-16 3.013e-18
7053.4069 1.330e-16 2.988e-18
7054.7097 1.369e-16 3.007e-18
7056.0125 1.355e-16 2.993e-18
7057.3153 1.365e-16 2.989e-18
7058.6182 1.298e-16 2.931e-18
7059.9210 1.323e-16 2.947e-18
7061.2238 1.332e-16 2.960e-18
7062.5266 1.303e-16 2.941e-18
7063.8295 1.305e-16 2.950e-18
7065.1323 1.331e-16 2.971e-18
7066.4351 1.366e-16 3.002e-18
7067.7379 1.346e-16 2.987e-18
7069.0408 1.335e-16 2.980e-18
7070.3436 1.360e-16 3.001e-18
7071.6464 1.309e-16 2.953e-18
7072.9492 1.311e-16 2.951e-18
7074.2521 1.355e-16 2.986e-18
7075.5549 1.310e-16 2.945e-18
7076.8577 1.355e-16 2.983e-18
7078.1605 1.328e-16 2.966e-18
7079.4634 1.284e-16 2.935e-18
7080.7662 1.324e-16 2.963e-18
7082.0690 1.300e-16 2.945e-18
7083.3718 1.281e-16 2.930e-18
7084.6747 1.328e-16 2.968e-18
7085.9775 1.354e-16 2.986e-18
7087.2803 1.316e-16 2.960e-18
7088.5831 1.291e-16 2.945e-18
7089.8860 1.273e-16 2.940e-18
7091.1888 1.334e-16 2.987e-18
7092.4916 1.294e-16 2.951e-18
7093.7944 1.280e-16 2.933e-18
7095.0973 1.306e-16 2.943e-18
7096.4001 1.285e-16 2.922e-18
7097.7029 1.272e-16 2.901e-18
7099.0057 1.281e-16 2.907e-18
7100.3086 1.294e-16 2.921e-18
7101.6114 1.285e-16 2.917e-18
7102.9142 1.286e-16 2.915e-18
7104.2170 1.257e-16 2.892e-18
7105.5199 1.269e-16 2.899e-18
7106.8227 1.295e-16 2.926e-18
7108.1255 1.342e-16 2.963e-18
7109.4283 1.348e-16 2.962e-18
7110.7312 1.267e-16 2.894e-18
7112.0340 1.278e-16 2.910e-18
7113.3368 1.329e-16 2.956e-18
7114.6396 1.277e-16 2.912e-18
7115.9425 1.289e-16 2.925e-18
7117.2453 1.301e-16 2.935e-18
7118.5481 1.281e-16 2.919e-18
7119.8509 1.286e-16 2.924e-18
7121.1538 1.286e-16 2.924e-18
7122.4566 1.251e-16 2.899e-18
7123.7594 1.252e-16 2.899e-18
7125.0622 1.281e-16 2.918e-18
7126.3651 1.262e-16 2.902e-18
7127.6679 1.291e-16 2.934e-18
7128.9707 1.307e-16 2.952e-18
7130.2735 1.274e-16 2.936e-18
7131.5764 1.291e-16 2.958e-18
7132.8792 1.283e-16 2.948e-18
7134.1820 1.242e-16 2.906e-18
7135.4848 1.286e-16 2.938e-18
7136.7877 1.306e-16 2.953e-18
7138.0905 1.273e-16 2.922e-18
7139.3933 1.262e-16 2.916e-18
7140.6961 1.280e-16 2.933e-18
7141.9990 1.304e-16 2.961e-18
7143.3018 1.278e-16 2.952e-18
7144.6046 1.287e-16 2.968e-18
7145.9074 1.323e-16 3.007e-18
7147.2103 1.305e-16 2.993e-18
7148.5131 1.302e-16 2.983e-18
7149.8159 1.292e-16 2.964e-18
7151.1187 1.299e-16 2.963e-18
7152.4216 1.291e-16 2.957e-18
7153.7244 1.281e-16 2.940e-18
7155.0272 1.307e-16 2.951e-18
7156.3300 1.278e-16 2.931e-18
7157.6329 1.265e-16 2.924e-18
7158.9357 1.290e-16 2.943e-18
7160.2385 1.317e-16 2.967e-18
7161.5413 1.315e-16 2.974e-18
7162.8442 1.292e-16 2.961e-18
7164.1470 1.252e-16 2.929e-18
7165.4498 1.272e-16 2.943e-18
7166.7526 1.261e-16 2.937e-18
7168.0555 1.272e-16 2.947e-18
7169.3583 1.276e-16 2.945e-18
7170.6611 1.249e-16 2.920e-18
7171.9639 1.236e-16 2.903e-18
7173.2668 1.219e-16 2.881e-18
7174.5696 1.276e-16 2.935e-18
7175.8724 1.259e-16 2.932e-18
7177.1752 1.241e-16 2.919e-18
7178.4781 1.224e-16 2.909e-18
7179.7809 1.256e-16 2.938e-18
7181.0837 1.243e-16 2.927e-18
7182.3865 1.236e-16 2.918e-18
7183.6894 1.203e-16 2.887e-18
7184.9922 1.225e-16 2.901e-18
7186.2950 1.217e-16 2.881e-18
7187.5978 1.209e-16 2.881e-18
7188.9007 1.188e-16 2.859e-18
7190.2035 1.202e-16 2.870e-18
7191.5063 1.203e-16 2.869e-18
7192.8092 1.245e-16 2.913e-18
7194.1120 1.180e-16 2.851e-18
7195.4148 1.151e-16 2.823e-18
7196.7176 1.185e-16 2.864e-18
7198.0205 1.195e-16 2.871e-18
7199.3233 1.246e-16 2.912e-18
7200.6261 1.213e-16 2.881e-18
7201.9289 1.175e-16 2.857e-18
7203.2318 1.228e-16 2.894e-18
7204.5346 1.159e-16 2.833e-18
7205.8374 1.194e-16 2.858e-18
7207.1402 1.196e-16 2.870e-18
7208.4431 1.195e-16 2.872e-18
7209.7459 1.203e-16 2.880e-18
7211.0487 1.237e-16 2.918e-18
7212.3515 1.249e-16 2.921e-18
7213.6544 1.270e-16 2.935e-18
7214.9572 1.239e-16 2.912e-18
7216.2600 1.289e-16 2.950e-18
7217.5628 1.237e-16 2.913e-18
7218.8657 1.236e-16 2.912e-18
7220.1685 1.282e-16 2.958e-18
7221.4713 1.258e-16 2.940e-18
7222.7741 1.204e-16 2.898e-18
7224.0770 1.214e-16 2.912e-18
7225.3798 1.254e-16 2.947e-18
7226.6826 1.241e-16 2.931e-18
7227.9854 1.219e-16 2.908e-18
7229.2883 1.263e-16 2.956e-18
7230.5911 1.224e-16 2.927e-18
7231.8939 1.220e-16 2.926e-18
7233.1967 1.209e-16 2.921e-18
7234.4996 1.176e-16 2.897e-18
7235.8024 1.149e-16 2.902e-18
7237.1052 1.176e-16 3.016e-18
7238.4080 1.159e-16 3.202e-18
7239.7109 1.203e-16 3.448e-18
7241.0137 1.208e-16 3.581e-18
7242.3165 1.207e-16 3.644e-18
7243.6193 1.242e-16 3.731e-18
7244.9222 1.249e-16 3.742e-18
7246.2250 1.192e-16 3.604e-18
7247.5278 1.185e-16 3.494e-18
7248.8306 1.161e-16 3.368e-18
7250.1335 1.186e-16 3.196e-18
7251.4363 1.225e-16 3.063e-18
7252.7391 1.187e-16 3.038e-18
7254.0419 1.175e-16 3.049e-18
7255.3448 1.145e-16 3.035e-18
7256.6476 1.117e-16 3.001e-18
7257.9504 1.118e-16 2.954e-18
7259.2532 1.163e-16 2.930e-18
7260.5561 1.128e-16 2.878e-18
7261.8589 1.131e-16 2.872e-18
7263.1617 1.103e-16 2.843e-18
7264.4645 1.086e-16 2.823e-18
7265.7674 1.103e-16 2.843e-18
7267.0702 1.104e-16 2.859e-18
7268.3730 1.084e-16 2.851e-18
7269.6758 1.090e-16 2.858e-18
7270.9787 1.167e-16 2.937e-18
7272.2815 1.190e-16 2.977e-18
7273.5843 1.132e-16 3.057e-18
7274.8871 1.138e-16 3.376e-18
7276.1900 1.153e-16 3.698e-18
7277.4928 1.141e-16 3.788e-18
7278.7956 1.185e-16 3.790e-18
7280.0984 1.200e-16 3.662e-18
7281.4013 1.189e-16 3.363e-18
7282.7041 1.211e-16 3.187e-18
7284.0069 1.247e-16 3.278e-18
7285.3097 1.209e-16 3.314e-18
7286.6126 1.218e-16 3.309e-18
7287.9154 1.213e-16 3.256e-18
7289.2182 1.189e-16 3.127e-18
7290.5210 1.200e-16 3.002e-18
7291.8239 1.214e-16 2.965e-18
7293.1267 1.262e-16 3.015e-18
7294.4295 1.222e-16 3.013e-18
7295.7323 1.197e-16 3.036e-18
7297.0352 1.236e-16 3.081e-18
7298.3380 1.253e-16 3.085e-18
7299.6408 1.227e-16 3.049e-18
7300.9436 1.205e-16 3.006e-18
7302.2465 1.219e-16 3.053e-18
7303.5493 1.211e-16 3.129e-18
7304.8521 1.181e-16 3.144e-18
7306.1549 1.186e-16 3.153e-18
7307.4578 1.224e-16 3.144e-18
7308.7606 1.186e-16 3.027e-18
7310.0634 1.181e-16 2.963e-18
7311.3662 1.208e-16 2.969e-18
7312.6691 1.184e-16 2.975e-18
7313.9719 1.192e-16 3.117e-18
7315.2747 1.227e-16 3.422e-18
7316.5775 1.279e-16 3.664e-18
7317.8804 1.231e-16 3.659e-18
7319.1832 1.247e-16 3.620e-18
7320.4860 1.257e-16 3.481e-18
7321.7888 1.219e-16 3.154e-18
7323.0917 1.231e-16 2.984e-18
7324.3945 1.267e-16 2.995e-18
7325.6973 1.270e-16 3.012e-18
7327.0001 1.242e-16 3.055e-18
7328.3030 1.214e-16 3.163e-18
7329.6058 1.235e-16 3.271e-18
7330.9086 1.213e-16 3.263e-18
7332.2114 1.224e-16 3.254e-18
7333.5143 1.233e-16 3.182e-18
7334.8171 1.266e-16 3.078e-18
7336.1199 1.268e-16 3.018e-18
7337.4227 1.214e-16 3.007e-18
7338.7256 1.197e-16 3.178e-18
7340.0284 1.241e-16 3.550e-18
7341.3312 1.280e-16 3.786e-18
7342.6340 1.275e-16 3.814e-18
7343.9369 1.232e-16 3.727e-18
7345.2397 1.237e-16 3.536e-18
7346.5425 1.267e-16 3.215e-18
7347.8453 1.254e-16 3.027e-18
7349.1482 1.265e-16 3.011e-18
7350.4510 1.246e-16 2.995e-18
7351.7538 1.251e-16 2.998e-18
7353.0566 1.234e-16 2.986e-18
7354.3595 1.243e-16 2.988e-18
7355.6623 1.232e-16 3.008e-18
7356.9651 1.225e-16 3.076e-18
7358.2679 1.241e-16 3.198e-18
7359.5708 1.227e-16 3.241e-18
7360.8736 1.265e-16 3.269e-18
7362.1764 1.282e-16 3.252e-18
7363.4792 1.233e-16 3.120e-18
7364.7821 1.263e-16 3.043e-18
7366.0849 1.220e-16 3.008e-18
7367.3877 1.253e-16 3.183e-18
7368.6905 1.268e-16 3.464e-18
7369.9934 1.264e-16 3.604e-18
7371.2962 1.189e-16 3.555e-18
7372.5990 1.206e-16 3.519e-18
7373.9018 1.213e-16 3.350e-18
7375.2047 1.159e-16 3.044e-18
7376.5075 1.218e-16 2.973e-18
7377.8103 1.205e-16 2.945e-18
7379.1131 1.228e-16 2.962e-18
7380.4160 1.268e-16 2.994e-18
7381.7188 1.238e-16 2.966e-18
7383.0216 1.200e-16 2.930e-18
7384.3244 1.179e-16 2.914e-18
7385.6273 1.219e-16 2.940e-18
7386.9301 1.244e-16 2.966e-18
7388.2329 1.258e-16 2.989e-18
7389.5357 1.241e-16 2.994e-18
7390.8386 1.229e-16 3.064e-18
7392.1414 1.221e-16 3.129e-18
7393.4442 1.204e-16 3.145e-18
7394.7470 1.206e-16 3.132e-18
7396.0499 1.256e-16 3.138e-18
7397.3527 1.219e-16 3.031e-18
7398.6555 1.239e-16 3.008e-18
7399.9583 1.207e-16 3.083e-18
7401.2612 1.206e-16 3.253e-18
7402.5640 1.222e-16 3.351e-18
7403.8668 1.239e-16 3.371e-18
7405.1696 1.199e-16 3.284e-18
7406.4725 1.267e-16 3.227e-18
7407.7753 1.251e-16 3.044e-18
7409.0781 1.177e-16 2.909e-18
7410.3809 1.217e-16 2.940e-18
7411.6838 1.246e-16 2.970e-18
7412.9866 1.185e-16 2.922e-18
7414.2894 1.206e-16 2.944e-18
7415.5922 1.200e-16 2.948e-18
7416.8951 1.233e-16 2.969e-18
7418.1979 1.223e-16 2.946e-18
7419.5007 1.241e-16 2.957e-18
7420.8035 1.215e-16 2.942e-18
7422.1064 1.164e-16 2.889e-18
7423.4092 1.220e-16 2.939e-18
7424.7120 1.198e-16 2.919e-18
7426.0148 1.174e-16 2.897e-18
7427.3177 1.181e-16 2.931e-18
7428.6205 1.279e-16 3.055e-18
7429.9233 1.232e-16 3.053e-18
7431.2261 1.238e-16 3.065e-18
7432.5290 1.210e-16 3.030e-18
7433.8318 1.193e-16 2.996e-18
7435.1346 1.170e-16 2.944e-18
7436.4374 1.167e-16 2.962e-18
7437.7403 1.185e-16 3.067e-18
7439.0431 1.220e-16 3.155e-18
7440.3459 1.251e-16 3.182e-18
7441.6487 1.224e-16 3.132e-18
7442.9516 1.206e-16 3.057e-18
7444.2544 1.214e-16 2.981e-18
7445.5572 1.208e-16 2.939e-18
7446.8600 1.264e-16 2.974e-18
7448.1629 1.242e-16 2.952e-18
7449.4657 1.188e-16 2.903e-18
7450.7685 1.224e-16 2.941e-18
7452.0713 1.236e-16 2.953e-18
7453.3742 1.180e-16 2.905e-18
7454.6770 1.240e-16 2.953e-18
7455.9798 1.248e-16 2.954e-18
7457.2826 1.248e-16 2.963e-18
7458.5855 1.234e-16 2.945e-18
7459.8883 1.202e-16 2.931e-18
7461.1911 1.178e-16 2.934e-18
7462.4939 1.197e-16 2.974e-18
7463.7968 1.246e-16 3.029e-18
7465.0996 1.224e-16 3.035e-18
7466.4024 1.196e-16 3.039e-18
7467.7052 1.163e-16 3.009e-18
7469.0081 1.240e-16 3.079e-18
7470.3109 1.217e-16 3.083e-18
7471.6137 1.209e-16 3.106e-18
7472.9166 1.277e-16 3.202e-18
7474.2194 1.225e-16 3.198e-18
7475.5222 1.185e-16 3.147e-18
7476.8250 1.259e-16 3.174e-18
7478.1279 1.240e-16 3.154e-18
7479.4307 1.204e-16 3.128e-18
7480.7335 1.219e-16 3.152e-18
